ª›ÃﬂŸ:	'1_-3
Ãß≤Ÿñº:	1_-03.FD3
ï™êÕì˙éû:	'11:24:13, 11/26/2021
µÕﬂ⁄∞¿:	F-2700-USER
∫“›ƒ:	'

åıìxåv
”√ﬁŸ:	F-7100å`ï™åıåuåıåıìxåv
ºÿ±Ÿ No.:	2908-007
ROM Ver.:	5J14000 12

ëïíuèåè
ë™íË”∞ƒﬁ:	3éüå≥
√ﬁ∞¿”∞ƒﬁ:	åuåı
ó„ãNäJénîgí∑:	200.0 nm
ó„ãNèIóπîgí∑:	400.0 nm
ó„ãNë§ª›Ãﬂÿ›∏ﬁä‘äu:	10.0 nm
åuåıäJénîgí∑:	300.0 nm
åuåıèIóπîgí∑:	550.0 nm
åuåıë§ª›Ãﬂÿ›∏ﬁä‘äu:	2.0 nm
Ω∑¨›ΩÀﬂ∞ƒﬁ:	12000 nm/min
ó„ãNë§ΩÿØƒ:	5.0 nm
åuåıë§ΩÿØƒ:	5.0 nm
ŒƒœŸìdà≥:	400 V
⁄ΩŒﬂ›Ω:	é©ìÆ 
ΩÕﬂ∏ƒŸï‚ê≥:	On
º¨Ø¿êßå‰:	Off
ìôçÇê¸ä‘äu:	10.000

ëïíuä÷êî
ó„ãNë§(200Å`600nm)  ΩÿØƒÅF5.0/20.0nm  ŒƒœŸìdà≥ÅF400V
åuåıë§(200Å`600nm)  ΩÿØƒÅF5.0/20.0nm  ŒƒœŸìdà≥ÅF250V
åuåıë§(500Å`900nm)  ñ≥
ó„ãNë§(500Å`900nm)  ñ≥

åuåıã≠ìxïWèÄâª:	ON
ïWèÄééóøÃß≤Ÿñº:	STD_20211126_111042.FD3
ïWèÄééóø√ﬁ∞¿
EX:	340.0	nm
EM:	454.0	nm
Data:	28.57
îZìx:	100.000	FLU
ä∑éZåWêî:	3.499565

éwíËîgí∑
No.	EX/EM(nm)	çÇÇ≥(Data)	


√ﬁ∞¿ÿΩƒ
	200.000	210.000	220.000	230.000	240.000	250.000	260.000	270.000	280.000	290.000	300.000	310.000	320.000	330.000	340.000	350.000	360.000	370.000	380.000	390.000	400.000
300.0	11.30	11.94	17.44	11.84	3.831	2.880	3.614	27.20	4.694	2.497	166.0	0.123	0.047	0.031	0.011	0.019	0.012	0.011	0.006	0.014	0.004
302.0	9.592	13.53	20.48	14.22	4.214	3.502	4.232	19.27	7.322	2.276	165.1	2.510	0.059	0.029	0.021	0.024	0.007	0.013	0.005	0.009	0.008
304.0	9.616	12.75	20.35	14.34	4.992	3.808	4.947	13.34	11.59	2.439	109.1	14.91	0.072	0.035	0.020	0.020	0.008	0.014	0.006	0.008	0.008
306.0	10.45	15.73	21.05	16.15	5.443	4.529	5.327	9.726	19.81	2.833	43.14	62.14	0.097	0.052	0.022	0.027	0.016	0.014	0.012	0.016	0.009
308.0	8.759	15.01	22.37	17.78	6.125	4.902	5.812	8.565	27.97	3.009	12.24	134.7	0.091	0.032	0.025	0.025	0.014	0.010	0.013	0.008	0.006
310.0	14.01	17.53	21.57	16.89	6.649	5.287	6.336	9.073	33.41	3.558	3.315	195.7	0.236	0.040	0.034	0.022	0.014	0.008	0.016	0.011	0.011
312.0	14.49	16.50	21.96	17.13	6.906	5.606	6.969	9.056	31.68	4.282	1.914	184.2	2.330	0.050	0.041	0.030	0.021	0.013	0.015	0.015	0.013
314.0	11.91	18.07	24.01	18.34	7.618	6.175	7.392	9.458	24.17	5.926	1.828	113.8	16.13	0.071	0.043	0.027	0.016	0.017	0.010	0.014	0.013
316.0	12.09	15.92	20.46	18.92	7.877	6.610	7.660	9.748	17.16	10.21	2.107	46.32	59.80	0.072	0.039	0.030	0.012	0.019	0.013	0.013	0.010
318.0	10.56	17.68	21.93	18.69	8.226	6.939	8.059	10.47	12.59	17.32	2.325	12.48	132.0	0.093	0.043	0.030	0.019	0.013	0.011	0.011	0.017
320.0	11.53	18.95	24.76	21.49	8.642	7.040	8.177	10.78	11.63	25.42	2.772	3.388	184.9	0.232	0.039	0.030	0.021	0.015	0.008	0.014	0.015
322.0	12.62	19.83	25.99	22.16	10.16	7.653	8.508	11.18	11.32	30.55	3.175	2.069	171.6	2.338	0.054	0.040	0.021	0.013	0.015	0.017	0.014
324.0	13.36	18.18	29.09	25.56	10.42	7.737	9.292	11.38	11.81	29.33	3.913	1.945	106.7	15.60	0.057	0.033	0.020	0.017	0.010	0.012	0.011
326.0	11.93	17.19	30.58	28.17	11.40	8.338	9.800	12.28	12.28	22.85	5.514	2.058	43.02	58.20	0.072	0.041	0.020	0.018	0.013	0.013	0.008
328.0	9.434	18.90	31.62	29.27	12.00	8.962	10.13	12.44	12.58	16.29	9.256	2.379	11.51	126.4	0.099	0.045	0.022	0.022	0.012	0.017	0.011
330.0	12.28	20.36	32.96	31.80	13.26	9.374	10.58	12.88	13.27	12.22	15.16	2.619	3.236	175.0	0.219	0.053	0.032	0.021	0.021	0.023	0.010
332.0	7.140	17.82	29.42	34.25	14.55	10.00	11.22	13.63	13.77	10.73	22.07	3.000	1.995	160.4	2.532	0.048	0.032	0.021	0.017	0.011	0.009
334.0	13.10	19.40	30.67	36.95	16.48	10.32	11.33	14.28	14.21	10.88	26.96	3.468	2.047	99.31	16.12	0.065	0.038	0.023	0.018	0.013	0.012
336.0	12.88	20.78	33.01	38.16	17.16	10.68	12.34	14.66	14.74	11.33	26.59	4.368	2.242	39.96	58.99	0.080	0.032	0.027	0.017	0.015	0.009
338.0	10.80	22.99	32.30	40.29	17.65	10.87	12.28	14.97	15.22	11.93	21.89	5.826	2.781	11.05	123.3	0.108	0.038	0.027	0.020	0.016	0.005
340.0	13.04	19.69	33.84	41.33	19.01	11.90	12.99	15.23	16.00	12.63	16.41	8.763	3.194	3.445	167.0	0.234	0.046	0.025	0.019	0.021	0.015
342.0	13.70	22.22	36.37	42.13	19.66	12.61	13.80	15.67	16.36	13.13	12.51	14.00	3.825	2.492	150.8	2.446	0.051	0.026	0.025	0.014	0.005
344.0	11.99	19.01	34.11	45.98	21.69	13.04	14.13	15.89	16.86	13.87	10.98	20.06	4.562	2.830	92.70	15.64	0.065	0.025	0.020	0.019	0.012
346.0	13.84	22.73	36.24	43.98	22.53	13.85	14.86	16.44	17.40	14.62	10.99	24.77	5.255	3.374	37.13	56.78	0.079	0.033	0.027	0.018	0.019
348.0	11.18	21.83	36.61	43.87	23.55	14.29	14.91	17.16	17.30	15.14	11.50	25.65	6.108	4.079	10.91	117.8	0.124	0.035	0.027	0.018	0.017
350.0	14.07	23.40	40.17	46.29	24.48	15.25	15.05	16.99	17.94	15.38	12.23	22.74	7.635	4.593	4.165	158.7	0.211	0.049	0.026	0.024	0.014
352.0	12.24	19.97	38.77	45.48	25.65	16.32	15.77	17.05	18.16	16.07	12.76	18.22	10.39	5.265	3.254	142.8	2.379	0.051	0.023	0.025	0.019
354.0	12.00	21.81	37.14	46.47	26.07	16.37	16.11	17.67	18.09	16.61	13.49	14.73	14.45	5.858	3.386	87.20	15.64	0.066	0.029	0.018	0.018
356.0	12.64	24.58	38.96	45.89	27.19	16.43	16.65	17.72	18.67	16.99	14.38	13.13	19.42	6.469	3.710	35.14	53.16	0.091	0.023	0.019	0.020
358.0	13.77	25.02	40.93	46.38	28.16	17.19	16.75	17.67	18.43	17.29	14.68	13.26	23.58	7.268	4.105	9.976	109.6	0.092	0.029	0.029	0.016
360.0	8.547	23.61	44.40	45.60	29.05	17.93	16.60	18.08	18.34	17.48	15.41	13.63	25.57	7.941	4.689	3.242	146.5	0.198	0.046	0.026	0.021
362.0	10.01	23.90	40.78	44.57	29.22	18.04	17.25	17.95	18.71	17.92	15.81	14.18	23.74	9.117	5.248	2.268	132.6	2.533	0.045	0.036	0.022
364.0	9.134	22.25	39.54	44.50	30.10	18.57	16.89	18.04	18.60	18.08	16.29	14.51	20.55	11.20	5.740	2.398	81.51	15.18	0.050	0.037	0.020
366.0	9.606	20.71	41.88	46.25	29.08	19.59	17.00	17.87	18.54	17.99	16.64	15.32	17.34	14.33	6.206	2.647	33.23	51.93	0.064	0.031	0.024
368.0	13.62	23.94	37.61	44.05	29.96	19.29	17.25	18.02	18.62	18.20	16.89	15.89	15.72	18.10	6.845	2.916	9.080	105.8	0.105	0.036	0.021
370.0	12.08	22.60	39.40	43.73	29.03	19.94	17.30	17.85	18.42	18.27	17.18	16.84	15.40	21.87	7.405	3.306	2.660	140.2	0.224	0.053	0.028
372.0	12.04	22.28	39.96	42.33	29.77	19.52	17.46	17.52	18.58	18.12	17.65	17.17	15.67	23.95	7.980	3.689	1.756	125.6	2.518	0.053	0.025
374.0	11.59	24.40	39.60	42.92	31.26	20.27	17.45	17.77	18.32	18.44	17.87	17.42	15.98	23.59	8.820	4.020	1.801	77.22	15.21	0.056	0.019
376.0	11.84	23.51	40.22	44.23	30.36	20.62	17.82	17.21	18.15	18.53	18.27	17.95	16.50	21.00	10.20	4.561	2.022	31.34	51.23	0.076	0.032
378.0	11.99	25.20	41.44	42.43	31.17	21.38	18.68	17.42	18.25	18.88	18.05	18.35	16.94	18.40	12.48	4.896	2.285	8.517	103.3	0.116	0.028
380.0	15.10	23.50	40.06	41.73	32.04	21.27	18.25	17.48	18.14	18.26	18.54	18.60	17.63	16.58	15.65	5.428	2.596	2.599	136.6	0.220	0.039
382.0	16.14	25.19	38.46	42.92	29.95	21.87	18.61	17.71	18.48	18.69	18.45	18.93	17.89	16.05	19.04	5.929	3.130	1.829	122.0	2.431	0.051
384.0	14.66	28.49	38.32	45.15	31.43	21.83	18.96	17.84	18.04	18.69	18.83	19.12	18.45	16.07	20.82	6.513	3.526	1.923	75.10	14.58	0.073
386.0	14.62	24.82	41.13	42.92	32.71	22.80	19.20	17.42	17.98	18.91	19.14	19.28	18.79	16.41	21.41	7.421	4.073	2.190	30.27	48.31	0.079
388.0	10.10	25.37	37.16	42.56	33.07	23.36	18.83	17.65	18.39	18.65	18.76	19.53	19.30	16.72	19.98	8.520	4.525	2.606	8.527	97.33	0.122
390.0	10.48	27.43	37.04	43.50	32.95	24.14	18.92	17.90	18.11	18.28	18.96	19.92	19.44	17.22	18.22	10.23	5.122	3.011	2.824	127.3	0.248
392.0	9.665	25.07	38.43	42.43	31.86	23.65	19.10	17.96	18.20	18.40	19.07	20.01	19.77	17.64	16.33	12.92	5.741	3.464	2.211	114.4	2.361
394.0	12.92	24.84	38.69	43.30	33.75	24.14	19.69	18.14	18.07	18.63	18.95	19.85	19.94	18.18	15.33	15.69	6.436	4.074	2.323	69.55	14.49
396.0	14.81	23.15	36.48	43.17	33.57	24.71	19.46	17.66	18.04	18.53	18.82	20.01	20.18	18.49	15.35	18.06	7.059	4.555	2.521	28.70	45.58
398.0	14.43	21.27	37.73	40.70	33.96	24.67	19.38	18.17	17.74	18.44	19.09	19.98	20.34	18.78	15.84	19.26	7.844	5.107	2.887	8.353	90.50
400.0	12.70	23.70	38.38	42.55	33.74	24.95	19.98	18.11	18.03	18.62	18.91	19.90	20.31	19.10	16.15	18.84	8.724	5.662	3.203	2.890	116.1
402.0	9.315	24.33	38.07	41.41	35.87	25.59	20.08	18.04	18.16	18.88	18.92	19.89	20.48	19.33	16.66	17.37	10.07	6.146	3.647	2.163	100.7
404.0	7.777	26.00	35.96	40.78	34.48	25.18	20.25	18.30	18.21	18.49	18.89	19.95	20.46	19.47	16.90	15.78	12.12	6.608	3.986	2.271	59.28
406.0	13.68	27.01	33.30	42.96	35.39	25.84	20.31	18.29	18.01	18.27	18.86	19.53	20.54	19.65	17.39	14.93	14.49	7.121	4.331	2.414	23.82
408.0	8.431	25.62	38.32	41.88	34.19	25.85	20.89	18.90	17.76	18.26	18.31	19.40	20.44	19.74	17.55	14.53	16.72	7.566	4.755	2.660	6.487
410.0	10.03	27.34	38.94	43.11	36.13	26.72	20.86	18.58	18.00	18.11	18.59	19.40	20.16	19.81	17.92	14.45	18.18	8.129	5.050	2.945	2.218
412.0	8.792	21.48	39.03	40.80	35.29	26.40	20.78	18.41	18.19	18.06	18.24	19.29	20.27	20.03	18.19	14.87	18.10	8.772	5.384	3.189	1.663
414.0	7.178	21.61	36.76	42.27	35.64	26.16	20.23	18.65	17.81	18.17	18.01	19.22	19.97	19.96	18.38	15.24	17.10	9.735	5.872	3.408	1.734
416.0	10.11	19.18	37.27	41.40	35.22	26.86	21.27	18.62	17.95	18.20	18.25	18.98	19.97	20.05	18.76	15.60	15.96	11.13	6.168	3.649	1.888
418.0	8.418	24.51	36.74	39.88	35.84	26.98	21.56	18.52	17.94	18.02	18.09	19.14	19.81	20.20	18.83	15.92	14.73	12.84	6.624	4.010	2.023
420.0	15.75	19.66	35.60	40.75	35.30	26.88	21.52	18.34	17.84	17.81	17.78	18.79	19.54	19.79	18.60	16.02	14.03	14.78	6.925	4.273	2.200
422.0	10.55	21.41	35.68	39.62	36.35	27.19	21.07	18.93	17.92	17.88	17.42	18.48	19.66	20.04	18.57	16.19	13.77	16.17	7.272	4.491	2.432
424.0	11.02	23.59	36.82	40.14	36.48	27.05	20.78	18.48	17.55	17.76	17.43	18.12	19.45	19.65	18.80	16.43	14.00	16.54	7.645	4.752	2.638
426.0	12.58	22.21	35.53	41.63	36.54	27.78	21.24	18.34	17.51	17.47	17.47	17.94	19.02	19.49	18.70	16.43	13.97	16.02	8.252	5.009	2.845
428.0	11.09	21.00	36.92	40.43	34.57	26.17	21.20	18.39	17.42	17.23	17.10	17.82	18.56	19.21	18.62	16.73	14.34	14.85	9.155	5.250	3.099
430.0	7.742	20.98	32.42	39.40	34.64	26.86	21.56	18.25	17.35	16.97	16.81	17.66	18.32	19.02	18.40	16.66	14.10	13.71	10.29	5.554	3.239
432.0	6.390	25.14	34.27	38.13	34.30	26.43	21.47	18.35	16.60	16.41	16.56	17.42	18.29	18.91	18.35	16.63	14.09	12.82	11.55	5.745	3.500
434.0	11.47	23.01	31.82	40.10	34.56	26.28	21.24	17.67	16.95	16.71	16.19	17.09	17.85	18.48	18.03	16.30	14.08	12.07	12.61	5.971	3.654
436.0	11.39	22.30	35.61	37.28	33.97	26.77	21.23	18.08	16.47	16.05	15.99	16.71	17.57	18.45	17.72	16.28	14.06	12.11	13.45	6.112	3.846
438.0	10.27	20.64	30.83	36.74	34.55	26.31	20.85	17.89	16.43	15.74	15.70	16.36	17.19	17.69	17.46	15.98	14.11	11.78	13.39	6.486	3.996
440.0	9.299	21.40	29.32	37.28	33.41	26.37	21.08	17.44	15.92	15.51	15.19	15.75	16.67	17.28	17.01	15.96	14.00	11.67	12.61	7.015	4.164
442.0	7.771	19.47	28.06	36.58	33.72	26.81	20.61	17.19	15.84	15.07	15.15	15.43	16.18	17.01	17.01	15.65	13.78	11.57	11.49	7.712	4.294
444.0	6.738	18.86	30.91	35.29	33.72	25.51	20.95	17.04	15.82	14.95	14.95	15.14	15.92	16.72	16.71	15.49	13.78	11.76	10.53	8.768	4.492
446.0	9.553	19.50	29.32	34.96	32.19	26.07	19.87	16.89	15.54	14.82	14.63	15.05	15.53	16.31	16.45	15.32	13.83	11.67	9.756	9.710	4.671
448.0	10.34	18.93	29.26	33.41	31.73	25.58	20.19	16.90	15.14	14.68	14.16	14.59	15.44	16.07	16.01	15.01	13.66	11.68	9.528	10.44	4.822
450.0	10.85	16.32	25.85	32.73	32.00	25.14	19.80	16.69	14.98	14.44	14.20	14.53	15.02	15.79	15.64	14.88	13.33	11.60	9.380	10.69	5.042
452.0	11.10	19.63	29.99	33.24	31.66	25.73	20.15	16.49	14.67	14.22	13.80	14.28	14.81	15.59	15.77	14.73	13.28	11.81	9.442	10.74	5.495
454.0	8.642	18.08	28.60	34.44	32.24	25.23	20.41	16.13	14.27	14.01	13.77	13.96	14.58	15.28	15.29	14.38	13.01	11.59	9.435	9.848	5.942
456.0	10.47	21.03	31.27	32.98	30.47	26.19	19.99	16.33	14.24	13.98	13.49	13.77	14.52	15.06	14.91	14.27	12.91	11.59	9.520	9.190	6.773
458.0	8.971	17.01	29.08	33.27	29.53	25.57	19.90	16.23	14.18	13.56	13.35	13.60	14.17	14.67	14.85	13.92	12.97	11.46	9.345	8.359	7.675
460.0	13.02	17.07	27.04	32.16	30.91	24.90	19.79	16.27	14.19	13.56	13.03	13.48	13.90	14.48	14.61	13.76	12.52	11.46	9.448	7.946	8.434
462.0	10.97	14.61	28.30	32.03	30.35	23.98	19.57	16.10	14.43	13.42	12.96	13.14	13.49	14.17	14.22	13.21	12.48	11.41	9.407	7.706	8.957
464.0	8.436	16.44	25.17	28.34	30.21	24.44	19.76	15.70	13.96	13.04	12.61	13.09	13.41	13.76	13.83	13.45	12.31	11.31	9.399	7.766	9.026
466.0	9.592	17.91	23.37	29.74	29.36	24.16	19.01	15.38	13.77	13.18	12.43	12.67	12.90	13.57	13.87	13.00	12.17	11.10	9.299	7.699	8.683
468.0	7.934	15.00	25.71	30.09	28.63	24.05	19.15	15.18	13.66	12.82	12.08	12.51	12.77	13.24	13.75	12.76	11.92	10.92	9.364	7.843	7.972
470.0	10.17	12.09	22.44	29.28	28.09	24.06	18.45	15.38	13.22	12.37	11.99	12.24	12.59	12.96	13.31	12.46	11.67	10.53	9.141	7.733	7.308
472.0	12.99	15.88	27.17	29.84	26.47	23.72	18.51	15.19	12.82	12.24	11.77	11.99	12.24	12.80	12.70	12.25	11.26	10.53	9.054	7.590	6.765
474.0	10.29	12.52	21.81	26.93	27.53	23.39	18.12	14.91	12.86	12.11	11.53	11.60	11.81	12.33	12.54	11.98	11.24	10.22	8.836	7.570	6.357
476.0	13.55	12.45	20.70	27.36	27.28	22.27	18.20	14.36	12.65	11.71	11.40	11.28	11.65	11.99	12.10	11.57	10.80	9.979	8.906	7.542	6.165
478.0	14.24	9.278	17.79	25.99	25.14	21.23	17.57	14.22	12.51	11.35	11.37	10.93	11.36	11.88	11.73	11.27	10.52	9.949	8.731	7.500	6.120
480.0	11.66	13.18	23.64	26.07	26.49	20.92	17.19	13.64	11.74	10.87	10.56	10.53	10.90	11.39	11.41	10.86	10.16	9.626	8.517	7.175	6.084
482.0	12.71	12.57	19.10	24.71	24.94	20.96	16.17	13.88	11.85	10.86	10.53	10.28	10.45	10.91	11.04	10.50	9.840	9.214	8.405	7.109	5.992
484.0	8.287	12.82	17.84	24.20	24.53	20.01	16.23	12.82	11.17	10.52	9.988	10.03	10.14	10.64	10.55	10.18	9.503	8.955	8.045	7.042	5.825
486.0	7.140	10.10	20.84	24.51	23.44	19.40	15.35	12.87	10.98	10.27	9.738	9.720	9.932	10.17	10.35	9.881	9.192	8.722	8.012	6.783	5.756
488.0	4.048	8.819	21.16	23.94	23.83	19.50	15.03	12.03	10.79	9.729	9.534	9.452	9.730	9.987	9.990	9.588	9.160	8.548	7.743	6.663	5.590
490.0	15.88	15.30	20.21	21.80	21.93	18.93	14.78	12.54	10.85	9.384	9.144	9.074	9.129	9.593	9.580	9.105	8.751	8.394	7.328	6.537	5.573
492.0	10.42	15.82	17.72	22.14	21.54	19.01	14.59	12.02	10.32	9.504	8.929	8.991	8.960	9.495	9.246	9.032	8.537	8.111	7.192	6.456	5.514
494.0	8.635	13.68	17.12	20.92	21.74	17.55	14.79	11.80	10.31	9.464	8.942	8.511	8.831	9.000	9.176	8.654	8.209	7.961	6.993	6.311	5.389
496.0	4.338	12.73	18.78	21.87	21.01	17.03	14.45	11.75	10.15	9.219	8.473	8.511	8.651	8.728	8.867	8.473	8.015	7.624	6.941	6.194	5.303
498.0	5.322	13.35	18.34	21.56	20.55	17.67	13.97	11.29	9.525	9.017	8.483	8.164	8.215	8.405	8.485	8.179	7.761	7.246	6.830	6.042	5.252
500.0	5.231	13.79	13.78	18.09	19.81	16.71	13.39	11.15	9.416	8.754	8.009	8.067	7.968	8.138	8.151	7.873	7.459	7.191	6.497	5.970	5.115
502.0	6.365	9.303	15.82	19.90	20.10	16.88	12.95	10.82	9.225	8.601	8.028	7.736	7.931	7.987	7.917	7.523	7.243	6.918	6.526	5.776	4.971
504.0	7.550	10.12	18.14	21.30	18.96	16.80	13.32	10.84	9.075	8.327	7.860	7.570	7.686	7.876	7.637	7.415	7.009	6.774	6.298	5.659	5.044
506.0	7.903	11.42	15.90	19.46	18.55	15.26	12.16	10.47	9.135	8.174	7.722	7.267	7.425	7.505	7.403	7.103	6.868	6.595	6.167	5.524	4.858
508.0	5.486	4.144	13.25	20.07	19.18	15.40	11.90	10.24	8.758	7.949	7.318	6.882	7.127	7.156	7.073	6.932	6.598	6.379	6.051	5.326	4.788
510.0	1.305	8.614	13.35	18.22	18.58	15.16	12.39	9.790	8.682	8.083	7.131	7.042	7.147	7.106	6.826	6.590	6.472	6.375	5.708	5.194	4.583
512.0	6.958	6.689	16.11	18.56	18.02	14.46	12.02	9.815	8.487	7.804	7.015	6.827	6.874	7.046	6.764	6.433	6.211	5.967	5.628	5.073	4.367
514.0	9.861	9.527	16.20	18.45	17.53	14.40	11.53	9.356	8.145	7.559	6.876	6.651	6.564	6.610	6.379	6.081	5.886	5.837	5.485	4.859	4.365
516.0	5.643	8.746	16.90	17.28	17.64	13.27	11.45	8.881	7.949	7.368	6.627	6.323	6.230	6.453	6.278	5.933	5.687	5.538	5.136	4.802	4.259
518.0	6.072	8.346	12.43	13.99	16.44	13.24	10.78	8.728	7.718	7.037	6.507	6.188	6.015	6.254	5.929	5.647	5.475	5.303	4.984	4.553	4.089
520.0	2.786	9.834	10.76	14.33	16.32	12.74	10.79	8.574	7.394	7.019	6.345	5.999	6.061	6.132	5.938	5.638	5.311	5.150	4.936	4.408	3.925
522.0	9.623	8.063	11.94	15.33	16.05	12.76	10.60	8.403	7.393	6.829	6.152	5.870	5.765	5.922	5.754	5.283	5.193	5.028	4.700	4.412	3.916
524.0	5.156	3.853	11.12	14.78	14.92	12.32	10.15	8.357	7.047	6.408	5.886	5.647	5.514	5.724	5.584	5.169	5.046	4.915	4.505	4.122	3.919
526.0	9.597	9.638	6.716	13.57	13.55	11.75	9.784	8.139	6.912	6.350	5.849	5.387	5.453	5.362	5.167	4.969	4.734	4.582	4.374	4.121	3.598
528.0	1.530	4.483	10.90	14.78	13.77	11.12	9.980	7.954	6.953	6.085	5.435	5.254	5.269	5.231	5.153	4.908	4.505	4.585	4.384	3.940	3.647
530.0	-0.333	8.452	11.84	13.17	12.27	11.11	9.547	7.522	6.822	5.941	5.483	5.244	5.069	4.981	5.045	4.712	4.501	4.346	4.219	3.834	3.438
532.0	0.607	3.722	11.42	12.14	12.60	10.59	9.258	7.648	6.444	5.672	5.364	4.964	4.837	5.074	4.843	4.414	4.307	4.203	4.036	3.686	3.440
534.0	4.603	7.482	11.94	12.50	11.65	10.90	8.797	6.876	6.090	5.479	5.096	4.768	4.888	4.837	4.654	4.444	4.155	4.072	3.850	3.550	3.324
536.0	10.14	1.862	6.625	11.58	12.47	10.07	8.987	7.385	6.219	5.490	4.909	4.720	4.694	4.819	4.381	4.236	3.942	4.050	3.952	3.550	3.165
538.0	6.594	6.354	7.181	10.32	12.53	9.574	8.291	7.459	6.160	5.235	4.448	4.482	4.499	4.629	4.228	4.042	3.888	3.853	3.706	3.392	3.151
540.0	6.517	3.725	8.633	10.52	10.66	8.816	7.283	7.395	5.688	4.920	4.451	4.631	4.517	4.459	4.223	3.891	3.666	3.687	3.636	3.306	3.095
542.0	3.283	0.109	9.738	11.85	9.893	8.676	7.450	7.741	5.223	4.861	4.607	4.079	4.268	4.036	4.100	3.933	3.728	3.630	3.504	3.125	3.041
544.0	6.037	6.706	6.149	9.223	10.45	8.981	7.827	8.016	5.443	4.641	4.387	4.035	4.091	4.056	4.092	3.682	3.546	3.482	3.380	3.034	2.833
546.0	1.453	9.210	6.534	9.022	8.664	9.571	6.824	7.901	5.365	4.592	4.181	3.907	3.908	4.013	3.941	3.609	3.382	3.432	3.165	3.034	2.752
548.0	-0.364	-0.933	7.580	8.986	9.863	8.801	6.504	6.791	5.298	4.405	4.195	3.757	3.806	3.733	3.715	3.591	3.307	3.314	2.974	2.936	2.692
550.0	-1.966	3.225	7.842	9.976	9.649	8.354	6.931	6.408	5.574	4.500	3.927	3.865	3.654	3.768	3.611	3.543	3.202	3.260	2.977	2.750	2.680
